File: data.csv
sample1,,sample2,,sample3,,sample4,,sample5,,sample6,,vzorek1,,vzorek2,,vzorek3,,specimen0,,specimen1,,specimen2,,
Wavelength (nm),Abs,Wavelength (nm),Abs,Wavelength (nm),Abs,Wavelength (nm),Abs,Wavelength (nm),Abs,Wavelength (nm),Abs,Wavelength (nm),Abs,Wavelength (nm),Abs,Wavelength (nm),Abs,Wavelength (nm),Abs,Wavelength (nm),Abs,Wavelength (nm),Abs,
799.994,0.740815,500.015,0.770008,600.008,0.750652,600.008,0.749855,600.008,0.749947,999.995,0.698498,999.995,0.687617,500.015,0.765903,500.015,0.764849,500.015,0.768106,500.015,0.763188,999.995,0.687136,
789.5,0.738749,458.017,0.786682,494.994,0.770181,494.994,0.765484,579.006,0.74714,895.013,0.721765,895.013,0.719853,394.984,0.828657,478.983,0.768904,478.983,0.770365,394.984,0.823339,995.798,0.69652,
778.997,0.733851,415.993,0.801872,389.983,0.824241,389.983,0.818087,558.005,0.745722,789.989,0.737706,789.989,0.737222,289.983,1.62841,458.017,0.778936,458.017,0.782277,289.983,1.26812,991.589,0.694323,
768.488,0.73592,373.983,0.837874,284.989,1.06767,284.989,1.06044,537.012,0.748462,685.003,0.743208,685.003,0.738386,,,437.006,0.79783,437.006,0.797827,,,987.402,0.703237,
758.008,0.736142,331.981,0.906257,,,,,515.994,0.758046,580.014,0.747252,580.014,0.750997,,,415.993,0.804063,415.993,0.80368,,,983.205,0.710423,
747.488,0.734094,289.983,1.0352,,,,,494.994,0.770323,475.011,0.770482,475.011,0.775088,,,394.984,0.823194,394.984,0.821022,,,978.997,0.71335,
737,0.73424,247.982,1.29613,,,,,474.017,0.773332,370.016,0.846442,370.016,0.845017,,,373.983,0.841519,373.983,0.838758,,,974.811,0.730829,
726.508,0.740499,206.009,2.20307,,,,,452.992,0.789876,264.985,1.15284,264.985,1.71868,,,352.993,0.871954,352.993,0.870838,,,970.583,0.748187,
716.014,0.723534,,,,,,,432.001,0.79435,,,,,,,331.981,0.906554,331.981,0.906337,,,966.409,0.767765,
705.484,0.726198,,,,,,,411.009,0.810762,,,,,,,310.989,0.9529,310.989,0.951234,,,962.192,0.795399,
694.989,0.732888,,,,,,,389.983,0.820692,,,,,,,289.983,1.62863,289.983,1.27308,,,957.999,0.832325,
684.495,0.74154,,,,,,,369.004,0.85101,,,,,,,269.005,1.78664,269.005,1.39175,,,953.795,0.890642,
674.003,0.743044,,,,,,,347.999,0.88597,,,,,,,247.982,1.66458,247.982,1.43844,,,949.582,0.957997,
663.513,0.743143,,,,,,,327.012,0.921592,,,,,,,226.995,3.65587,226.995,3.175,,,945.391,1.02382,
652.99,0.743601,,,,,,,306.007,0.967956,,,,,,,206.009,3.9044,206.009,3.89623,,,941.191,1.02794,
642.508,0.742796,,,,,,,,,,,,,,,,,,,,,936.982,0.882104,
631.994,0.746731,,,,,,,,,,,,,,,,,,,,,932.796,0.766092,
621.486,0.745301,,,,,,,,,,,,,,,,,,,,,928.601,0.740629,
610.985,0.746463,,,,,,,,,,,,,,,,,,,,,924.396,0.728054,
600.491,0.749439,,,,,,,,,,,,,,,,,,,,,920.183,0.718805,
590.005,0.748771,,,,,,,,,,,,,,,,,,,,,915.993,0.710327,
579.491,0.748731,,,,,,,,,,,,,,,,,,,,,911.795,0.709611,
568.987,0.749291,,,,,,,,,,,,,,,,,,,,,907.587,0.717018,
558.493,0.747315,,,,,,,,,,,,,,,,,,,,,903.405,0.712486,
548.011,0.748354,,,,,,,,,,,,,,,,,,,,,899.18,0.718284,
537.502,0.752513,,,,,,,,,,,,,,,,,,,,,894.98,0.716639,
527.007,0.7522,,,,,,,,,,,,,,,,,,,,,890.804,0.722126,
516.486,0.758266,,,,,,,,,,,,,,,,,,,,,886.587,0.727653,
506.018,0.765789,,,,,,,,,,,,,,,,,,,,,882.395,0.739498,
495.488,0.768466,,,,,,,,,,,,,,,,,,,,,878.194,0.740302,
485.012,0.776838,,,,,,,,,,,,,,,,,,,,,873.986,0.736797,
474.514,0.773209,,,,,,,,,,,,,,,,,,,,,869.802,0.733251,
463.994,0.782538,,,,,,,,,,,,,,,,,,,,,865.577,0.730037,
453.491,0.790626,,,,,,,,,,,,,,,,,,,,,861.378,0.729598,
443.006,0.796895,,,,,,,,,,,,,,,,,,,,,857.205,0.729208,
432.501,0.801084,,,,,,,,,,,,,,,,,,,,,852.99,0.734495,
422.016,0.805924,,,,,,,,,,,,,,,,,,,,,848.801,0.738363,
411.511,0.811578,,,,,,,,,,,,,,,,,,,,,844.604,0.737556,
400.989,0.817053,,,,,,,,,,,,,,,,,,,,,840.399,0.736322,
390.487,0.820673,,,,,,,,,,,,,,,,,,,,,836.187,0.742637,
380.007,0.836673,,,,,,,,,,,,,,,,,,,,,832.002,0.739746,
369.51,0.848942,,,,,,,,,,,,,,,,,,,,,827.775,0.738863,
358.997,0.868064,,,,,,,,,,,,,,,,,,,,,823.574,0.743089,
348.507,0.884272,,,,,,,,,,,,,,,,,,,,,819.401,0.741947,
338.002,0.896049,,,,,,,,,,,,,,,,,,,,,815.186,0.741114,
327.482,0.919438,,,,,,,,,,,,,,,,,,,,,810.999,0.737423,
316.987,0.940046,,,,,,,,,,,,,,,,,,,,,806.804,0.738698,
306.517,0.968169,,,,,,,,,,,,,,,,,,,,,802.602,0.738527,
295.995,1.0145,,,,,,,,,,,,,,,,,,,,,798.393,0.738147,
285.5,1.06861,,,,,,,,,,,,,,,,,,,,,794.177,0.739462,
274.992,1.11472,,,,,,,,,,,,,,,,,,,,,789.989,0.739615,
264.512,1.16148,,,,,,,,,,,,,,,,,,,,,785.794,0.741814,
253.982,1.26358,,,,,,,,,,,,,,,,,,,,,781.592,0.738232,
243.519,1.34078,,,,,,,,,,,,,,,,,,,,,777.383,0.73627,
233.007,1.50872,,,,,,,,,,,,,,,,,,,,,773.203,0.735136,
222.484,1.64047,,,,,,,,,,,,,,,,,,,,,768.981,0.737305,
211.992,1.91183,,,,,,,,,,,,,,,,,,,,,764.788,0.732489,
201.49,2.46261,,,,,,,,,,,,,,,,,,,,,760.588,0.73456,
,,,,,,,,,,,,,,,,,,,,,,756.382,0.734443,
,,,,,,,,,,,,,,,,,,,,,,752.169,0.732156,
,,,,,,,,,,,,,,,,,,,,,,747.985,0.731336,
,,,,,,,,,,,,,,,,,,,,,,743.795,0.732695,
,,,,,,,,,,,,,,,,,,,,,,739.599,0.732225,
,,,,,,,,,,,,,,,,,,,,,,735.396,0.734067,
,,,,,,,,,,,,,,,,,,,,,,731.1875,0.736292,
,,,,,,,,,,,,,,,,,,,,,,726.973,0.737501,
,,,,,,,,,,,,,,,,,,,,,,722.788,0.736123,
,,,,,,,,,,,,,,,,,,,,,,718.597,0.727906,
,,,,,,,,,,,,,,,,,,,,,,714.4,0.723817,
,,,,,,,,,,,,,,,,,,,,,,710.197,0.723634,
,,,,,,,,,,,,,,,,,,,,,,705.988,0.726341,
,,,,,,,,,,,,,,,,,,,,,,701.773,0.726861,
,,,,,,,,,,,,,,,,,,,,,,697.589,0.727684,
,,,,,,,,,,,,,,,,,,,,,,693.399,0.733494,
,,,,,,,,,,,,,,,,,,,,,,689.168,0.735531,
,,,,,,,,,,,,,,,,,,,,,,684.966,0.739855,
,,,,,,,,,,,,,,,,,,,,,,680.796,0.736985,
,,,,,,,,,,,,,,,,,,,,,,676.584,0.738694,
,,,,,,,,,,,,,,,,,,,,,,672.366,0.739055,
,,,,,,,,,,,,,,,,,,,,,,668.179,0.739235,
,,,,,,,,,,,,,,,,,,,,,,663.987,0.740228,
,,,,,,,,,,,,,,,,,,,,,,659.79,0.737935,
,,,,,,,,,,,,,,,,,,,,,,655.587,0.739897,
,,,,,,,,,,,,,,,,,,,,,,651.38,0.742235,
,,,,,,,,,,,,,,,,,,,,,,647.167,0.741686,
,,,,,,,,,,,,,,,,,,,,,,642.985,0.743384,
,,,,,,,,,,,,,,,,,,,,,,638.762,0.744104,
,,,,,,,,,,,,,,,,,,,,,,634.571,0.743611,
,,,,,,,,,,,,,,,,,,,,,,630.374,0.744715,
,,,,,,,,,,,,,,,,,,,,,,626.173,0.739599,
,,,,,,,,,,,,,,,,,,,,,,621.966,0.74393,
,,,,,,,,,,,,,,,,,,,,,,617.792,0.743231,
,,,,,,,,,,,,,,,,,,,,,,613.576,0.743923,
,,,,,,,,,,,,,,,,,,,,,,609.392,0.742268,
,,,,,,,,,,,,,,,,,,,,,,605.167,0.745387,
,,,,,,,,,,,,,,,,,,,,,,600.974,0.745123,
,,,,,,,,,,,,,,,,,,,,,,596.776,0.745373,
,,,,,,,,,,,,,,,,,,,,,,592.574,0.745567,
,,,,,,,,,,,,,,,,,,,,,,588.367,0.746854,
,,,,,,,,,,,,,,,,,,,,,,584.193,0.744706,
,,,,,,,,,,,,,,,,,,,,,,579.977,0.747075,
,,,,,,,,,,,,,,,,,,,,,,575.756,0.746763,
,,,,,,,,,,,,,,,,,,,,,,571.569,0.744593,
,,,,,,,,,,,,,,,,,,,,,,567.377,0.747071,
,,,,,,,,,,,,,,,,,,,,,,563.181,0.746071,
,,,,,,,,,,,,,,,,,,,,,,558.981,0.747205,
,,,,,,,,,,,,,,,,,,,,,,554.777,0.748687,
,,,,,,,,,,,,,,,,,,,,,,550.568,0.746343,
,,,,,,,,,,,,,,,,,,,,,,546.355,0.744313,
,,,,,,,,,,,,,,,,,,,,,,542.176,0.747186,
,,,,,,,,,,,,,,,,,,,,,,537.955,0.74861,
,,,,,,,,,,,,,,,,,,,,,,533.768,0.747365,
,,,,,,,,,,,,,,,,,,,,,,529.576,0.753301,
,,,,,,,,,,,,,,,,,,,,,,525.381,0.74735,
,,,,,,,,,,,,,,,,,,,,,,521.182,0.753554,
,,,,,,,,,,,,,,,,,,,,,,516.979,0.752,
,,,,,,,,,,,,,,,,,,,,,,512.772,0.75772,
,,,,,,,,,,,,,,,,,,,,,,508.561,0.757275,
,,,,,,,,,,,,,,,,,,,,,,504.385,0.762319,
,,,,,,,,,,,,,,,,,,,,,,500.167,0.763941,
,,,,,,,,,,,,,,,,,,,,,,495.983,0.764528,
,,,,,,,,,,,,,,,,,,,,,,491.758,0.764814,
,,,,,,,,,,,,,,,,,,,,,,487.567,0.766974,
,,,,,,,,,,,,,,,,,,,,,,483.372,0.763857,
,,,,,,,,,,,,,,,,,,,,,,479.174,0.76817,
,,,,,,,,,,,,,,,,,,,,,,474.972,0.771224,
,,,,,,,,,,,,,,,,,,,,,,470.767,0.768586,
,,,,,,,,,,,,,,,,,,,,,,466.559,0.771944,
,,,,,,,,,,,,,,,,,,,,,,462.385,0.781232,
,,,,,,,,,,,,,,,,,,,,,,458.17,0.778343,
,,,,,,,,,,,,,,,,,,,,,,453.951,0.785861,
,,,,,,,,,,,,,,,,,,,,,,449.768,0.788532,
,,,,,,,,,,,,,,,,,,,,,,445.581,0.788704,
,,,,,,,,,,,,,,,,,,,,,,441.353,0.796724,
,,,,,,,,,,,,,,,,,,,,,,437.16,0.79724,
,,,,,,,,,,,,,,,,,,,,,,432.964,0.794081,
,,,,,,,,,,,,,,,,,,,,,,428.764,0.79976,
,,,,,,,,,,,,,,,,,,,,,,424.562,0.799776,
,,,,,,,,,,,,,,,,,,,,,,420.356,0.798362,
,,,,,,,,,,,,,,,,,,,,,,416.148,0.80374,
,,,,,,,,,,,,,,,,,,,,,,411.975,0.806757,
,,,,,,,,,,,,,,,,,,,,,,407.761,0.810289,
,,,,,,,,,,,,,,,,,,,,,,403.582,0.807349,
,,,,,,,,,,,,,,,,,,,,,,399.362,0.815187,
,,,,,,,,,,,,,,,,,,,,,,395.178,0.821229,
,,,,,,,,,,,,,,,,,,,,,,390.952,0.81294,
,,,,,,,,,,,,,,,,,,,,,,386.763,0.824866,
,,,,,,,,,,,,,,,,,,,,,,382.57,0.830617,
,,,,,,,,,,,,,,,,,,,,,,378.375,0.839071,
,,,,,,,,,,,,,,,,,,,,,,374.177,0.839368,
,,,,,,,,,,,,,,,,,,,,,,369.977,0.843744,
,,,,,,,,,,,,,,,,,,,,,,365.774,0.850788,
,,,,,,,,,,,,,,,,,,,,,,361.568,0.848201,
,,,,,,,,,,,,,,,,,,,,,,357.36,0.859541,
,,,,,,,,,,,,,,,,,,,,,,353.149,0.867978,
,,,,,,,,,,,,,,,,,,,,,,348.975,0.875772,
,,,,,,,,,,,,,,,,,,,,,,344.759,0.886499,
,,,,,,,,,,,,,,,,,,,,,,340.541,0.893156,
,,,,,,,,,,,,,,,,,,,,,,336.36,0.899201,
,,,,,,,,,,,,,,,,,,,,,,332.176,0.904134,
,,,,,,,,,,,,,,,,,,,,,,327.951,0.915569,
,,,,,,,,,,,,,,,,,,,,,,323.763,0.911756,
,,,,,,,,,,,,,,,,,,,,,,319.573,0.927308,
,,,,,,,,,,,,,,,,,,,,,,315.341,0.941079,
,,,,,,,,,,,,,,,,,,,,,,311.146,0.953773,
,,,,,,,,,,,,,,,,,,,,,,306.949,0.964345,
,,,,,,,,,,,,,,,,,,,,,,302.75,0.99138,
,,,,,,,,,,,,,,,,,,,,,,298.549,1.06003,
,,,,,,,,,,,,,,,,,,,,,,294.345,1.14795,
,,,,,,,,,,,,,,,,,,,,,,290.14,1.2673,
,,,,,,,,,,,,,,,,,,,,,,285.972,1.3272,
,,,,,,,,,,,,,,,,,,,,,,281.763,1.37894,
,,,,,,,,,,,,,,,,,,,,,,277.552,1.39652,
,,,,,,,,,,,,,,,,,,,,,,273.339,1.40623,
,,,,,,,,,,,,,,,,,,,,,,269.163,1.39076,
,,,,,,,,,,,,,,,,,,,,,,264.946,1.3775,
,,,,,,,,,,,,,,,,,,,,,,260.767,1.36507,
,,,,,,,,,,,,,,,,,,,,,,256.546,1.37935,
,,,,,,,,,,,,,,,,,,,,,,252.364,1.39265,
,,,,,,,,,,,,,,,,,,,,,,248.14,1.4324,
,,,,,,,,,,,,,,,,,,,,,,243.953,1.54486,
,,,,,,,,,,,,,,,,,,,,,,239.766,1.7144,
,,,,,,,,,,,,,,,,,,,,,,235.537,2.0419,
,,,,,,,,,,,,,,,,,,,,,,231.346,2.61251,
,,,,,,,,,,,,,,,,,,,,,,227.153,3.08277,
,,,,,,,,,,,,,,,,,,,,,,222.959,3.45778,
,,,,,,,,,,,,,,,,,,,,,,218.763,3.5388,
,,,,,,,,,,,,,,,,,,,,,,214.566,3.82197,
,,,,,,,,,,,,,,,,,,,,,,210.368,3.88465,
,,,,,,,,,,,,,,,,,,,,,,206.168,3.85284,
,,,,,,,,,,,,,,,,,,,,,,201.966,4.14247,
,,,,,,,,,,,,,,,,,,,,,,197.763,3.73672,
,,,,,,,,,,,,,,,,,,,,,,193.559,3.91893,
,,,,,,,,,,,,,,,,,,,,,,189.949,3.71306,

sample1,
sample1
Collection Time: 5/15/2020 11:54:44 AM
Operator Name  :
Scan Version 5.1.0.1016
Parameter List :
Instrument  Cary 60
Instrument Version  2.00
Start (nm)  800.0
Stop (nm)  200.0
X Mode  Nanometers
Y Mode  Abs
UV-Vis Scan Rate (nm/min)  300.00
UV-Vis Data Interval (nm)  0.50
UV-Vis Ave. Time (sec)  0.1000
Beam Mode  Dual Beam
Baseline Correction  Off
Cycle Mode  Off
Method Log     :
Method Name    :
Date/Time stamp: 5/15/2020 11:53:41 AM
Method Modifications:
UVVIS SAT Changed: 5/15/2020 11:54:02 AM, Old:0.0125, New:0.1000
Common SAT Changed: 5/15/2020 11:54:02 AM, Old:0.0125, New:0.1000
Y Max Abs Changed: 5/15/2020 11:54:09 AM, Old:     1.00, New:     2.00
Common Interval nm Changed: 5/15/2020 11:54:09 AM, Old:     5.00, New:     0.50
End Method Modifications
<Current Wavelength> , 201.0

sample2,
sample2
Collection Time: 5/15/2020 11:58:05 AM
Operator Name  :
Scan Version 5.1.0.1016
Parameter List :
Instrument  Cary 60
Instrument Version  2.00
Start (nm)  500.0
Stop (nm)  200.0
X Mode  Nanometers
Y Mode  Abs
UV-Vis Scan Rate (nm/min)  9600.00
UV-Vis Data Interval (nm)  2.00
UV-Vis Ave. Time (sec)  0.0125
Beam Mode  Dual Beam
Baseline Correction  Off
Cycle Mode  Off
Method Log     :
Method Name    :
Date/Time stamp: 5/15/2020 11:53:41 AM
Method Modifications:
UVVIS SAT Changed: 5/15/2020 11:54:02 AM, Old:0.0125, New:0.1000
Common SAT Changed: 5/15/2020 11:54:02 AM, Old:0.0125, New:0.1000
Y Max Abs Changed: 5/15/2020 11:54:09 AM, Old:     1.00, New:     2.00
Common Interval nm Changed: 5/15/2020 11:54:09 AM, Old:     5.00, New:     0.50
UVVIS SAT Changed: 5/15/2020 11:57:52 AM, Old:0.1000, New:0.0125
Common SAT Changed: 5/15/2020 11:57:52 AM, Old:0.1000, New:0.0125
X Start nm Changed: 5/15/2020 11:57:56 AM, Old:  800.0, New:  500.0
Common Interval nm Changed: 5/15/2020 11:57:56 AM, Old:     0.50, New:     2.00
End Method Modifications
<Current Wavelength> , 226.0

sample3,
sample3
Collection Time: 5/15/2020 11:58:54 AM
Operator Name  :
Scan Version 5.1.0.1016
Parameter List :
Instrument  Cary 60
Instrument Version  2.00
Start (nm)  600.0
Stop (nm)  190.0
X Mode  Nanometers
Y Mode  Abs
UV-Vis Scan Rate (nm/min)  24000.00
UV-Vis Data Interval (nm)  5.00
UV-Vis Ave. Time (sec)  0.0125
Beam Mode  Dual Beam
Baseline Correction  Off
Cycle Mode  Off
Method Log     :
Method Name    :
Date/Time stamp: 5/15/2020 11:53:41 AM
Method Modifications:
UVVIS SAT Changed: 5/15/2020 11:54:02 AM, Old:0.0125, New:0.1000
Common SAT Changed: 5/15/2020 11:54:02 AM, Old:0.0125, New:0.1000
Y Max Abs Changed: 5/15/2020 11:54:09 AM, Old:     1.00, New:     2.00
Common Interval nm Changed: 5/15/2020 11:54:09 AM, Old:     5.00, New:     0.50
UVVIS SAT Changed: 5/15/2020 11:57:52 AM, Old:0.1000, New:0.0125
Common SAT Changed: 5/15/2020 11:57:52 AM, Old:0.1000, New:0.0125
X Start nm Changed: 5/15/2020 11:57:56 AM, Old:  800.0, New:  500.0
Common Interval nm Changed: 5/15/2020 11:57:56 AM, Old:     0.50, New:     2.00
X Start nm Changed: 5/15/2020 11:58:47 AM, Old:  500.0, New:  600.0
X Stop nm Changed: 5/15/2020 11:58:47 AM, Old:  200.0, New:  190.0
Common Interval nm Changed: 5/15/2020 11:58:47 AM, Old:     2.00, New:     5.00
End Method Modifications
<Current Wavelength> , 234.4

sample4,
sample4
Collection Time: 5/15/2020 12:06:29 PM
Operator Name  :
Scan Version 5.1.0.1016
Parameter List :
Instrument  Cary 60
Instrument Version  2.00
Start (nm)  600.0
Stop (nm)  190.0
X Mode  Nanometers
Y Mode  Abs
UV-Vis Scan Rate (nm/min)  24000.00
UV-Vis Data Interval (nm)  5.00
UV-Vis Ave. Time (sec)  0.0125
Beam Mode  Dual Beam
Baseline Correction  Off
Cycle Mode  Off
Method Log     :
Method Name    :
Date/Time stamp: 5/15/2020 11:53:41 AM
Method Modifications:
UVVIS SAT Changed: 5/15/2020 11:54:02 AM, Old:0.0125, New:0.1000
Common SAT Changed: 5/15/2020 11:54:02 AM, Old:0.0125, New:0.1000
Y Max Abs Changed: 5/15/2020 11:54:09 AM, Old:     1.00, New:     2.00
Common Interval nm Changed: 5/15/2020 11:54:09 AM, Old:     5.00, New:     0.50
UVVIS SAT Changed: 5/15/2020 11:57:52 AM, Old:0.1000, New:0.0125
Common SAT Changed: 5/15/2020 11:57:52 AM, Old:0.1000, New:0.0125
X Start nm Changed: 5/15/2020 11:57:56 AM, Old:  800.0, New:  500.0
Common Interval nm Changed: 5/15/2020 11:57:56 AM, Old:     0.50, New:     2.00
X Start nm Changed: 5/15/2020 11:58:47 AM, Old:  500.0, New:  600.0
X Stop nm Changed: 5/15/2020 11:58:47 AM, Old:  200.0, New:  190.0
Common Interval nm Changed: 5/15/2020 11:58:47 AM, Old:     2.00, New:     5.00
End Method Modifications
<Current Wavelength> , 265.0

sample5,
sample5
Collection Time: 5/15/2020 12:06:51 PM
Operator Name  :
Scan Version 5.1.0.1016
Parameter List :
Instrument  Cary 60
Instrument Version  2.00
Start (nm)  600.0
Stop (nm)  300.0
X Mode  Nanometers
Y Mode  Abs
UV-Vis Scan Rate (nm/min)  600.00
UV-Vis Data Interval (nm)  1.00
UV-Vis Ave. Time (sec)  0.1000
Beam Mode  Dual Beam
Baseline Correction  Off
Cycle Mode  Off
Method Log     :
Method Name    :
Date/Time stamp: 5/15/2020 11:53:41 AM
Method Modifications:
UVVIS SAT Changed: 5/15/2020 11:54:02 AM, Old:0.0125, New:0.1000
Common SAT Changed: 5/15/2020 11:54:02 AM, Old:0.0125, New:0.1000
Y Max Abs Changed: 5/15/2020 11:54:09 AM, Old:     1.00, New:     2.00
Common Interval nm Changed: 5/15/2020 11:54:09 AM, Old:     5.00, New:     0.50
UVVIS SAT Changed: 5/15/2020 11:57:52 AM, Old:0.1000, New:0.0125
Common SAT Changed: 5/15/2020 11:57:52 AM, Old:0.1000, New:0.0125
X Start nm Changed: 5/15/2020 11:57:56 AM, Old:  800.0, New:  500.0
Common Interval nm Changed: 5/15/2020 11:57:56 AM, Old:     0.50, New:     2.00
X Start nm Changed: 5/15/2020 11:58:47 AM, Old:  500.0, New:  600.0
X Stop nm Changed: 5/15/2020 11:58:47 AM, Old:  200.0, New:  190.0
Common Interval nm Changed: 5/15/2020 11:58:47 AM, Old:     2.00, New:     5.00
UVVIS SAT Changed: 5/15/2020 12:06:39 PM, Old:0.0125, New:0.1000
Common SAT Changed: 5/15/2020 12:06:39 PM, Old:0.0125, New:0.1000
X Stop nm Changed: 5/15/2020 12:06:45 PM, Old:  190.0, New:  300.0
Common Interval nm Changed: 5/15/2020 12:06:45 PM, Old:     5.00, New:     1.00
End Method Modifications
<Current Wavelength> , 300.0

sample6,
sample6
Collection Time: 5/15/2020 12:08:03 PM
Operator Name  :
Scan Version 5.1.0.1016
Parameter List :
Instrument  Cary 60
Instrument Version  2.00
Start (nm)  1000.0
Stop (nm)  190.0
X Mode  Nanometers
Y Mode  Abs
UV-Vis Scan Rate (nm/min)  24000.00
UV-Vis Data Interval (nm)  5.00
UV-Vis Ave. Time (sec)  0.0125
Beam Mode  Dual Beam
Baseline Correction  Off
Cycle Mode  Off
Method Log     :
Method Name    :
Date/Time stamp: 5/15/2020 11:53:41 AM
Method Modifications:
UVVIS SAT Changed: 5/15/2020 11:54:02 AM, Old:0.0125, New:0.1000
Common SAT Changed: 5/15/2020 11:54:02 AM, Old:0.0125, New:0.1000
Y Max Abs Changed: 5/15/2020 11:54:09 AM, Old:     1.00, New:     2.00
Common Interval nm Changed: 5/15/2020 11:54:09 AM, Old:     5.00, New:     0.50
UVVIS SAT Changed: 5/15/2020 11:57:52 AM, Old:0.1000, New:0.0125
Common SAT Changed: 5/15/2020 11:57:52 AM, Old:0.1000, New:0.0125
X Start nm Changed: 5/15/2020 11:57:56 AM, Old:  800.0, New:  500.0
Common Interval nm Changed: 5/15/2020 11:57:56 AM, Old:     0.50, New:     2.00
[...]
Common Interval nm Changed: 5/15/2020 11:58:47 AM, Old:     2.00, New:     5.00
UVVIS SAT Changed: 5/15/2020 12:06:39 PM, Old:0.0125, New:0.1000
Common SAT Changed: 5/15/2020 12:06:39 PM, Old:0.0125, New:0.1000
X Stop nm Changed: 5/15/2020 12:06:45 PM, Old:  190.0, New:  300.0
Common Interval nm Changed: 5/15/2020 12:06:45 PM, Old:     5.00, New:     1.00
UVVIS SAT Changed: 5/15/2020 12:07:49 PM, Old:0.1000, New:0.0125
Common SAT Changed: 5/15/2020 12:07:49 PM, Old:0.1000, New:0.0125
X Start nm Changed: 5/15/2020 12:07:53 PM, Old:  600.0, New: 1000.0
X Stop nm Changed: 5/15/2020 12:07:53 PM, Old:  300.0, New:  190.0
Common Interval nm Changed: 5/15/2020 12:07:53 PM, Old:     1.00, New:     5.00
X Start nm Changed: 5/15/2020 12:20:16 PM, Old: 1000.0, New:  500.0
UVVIS SAT Changed: 5/15/2020 12:20:34 PM, Old:0.0125, New:0.1000
Common SAT Changed: 5/15/2020 12:20:34 PM, Old:0.0125, New:0.1000
Common Interval nm Changed: 5/15/2020 12:20:36 PM, Old:     5.00, New:     1.00
End Method Modifications
<Current Wavelength> , 192.0

specimen0,
specimen0
Collection Time: 5/15/2020 12:29:14 PM
Operator Name  :
Scan Version 5.1.0.1016
Parameter List :
Instrument  Cary 60
Instrument Version  2.00
Start (nm)  500.0
Stop (nm)  190.0
X Mode  Nanometers
Y Mode  Abs
UV-Vis Scan Rate (nm/min)  600.00
UV-Vis Data Interval (nm)  1.00
UV-Vis Ave. Time (sec)  0.1000
Beam Mode  Dual Beam
Baseline Correction  Off
Cycle Mode  Off
Method Log     :
Method Name    :
Date/Time stamp: 5/15/2020 11:53:41 AM
Method Modifications:
UVVIS SAT Changed: 5/15/2020 11:54:02 AM, Old:0.0125, New:0.1000
Common SAT Changed: 5/15/2020 11:54:02 AM, Old:0.0125, New:0.1000
Y Max Abs Changed: 5/15/2020 11:54:09 AM, Old:     1.00, New:     2.00
Common Interval nm Changed: 5/15/2020 11:54:09 AM, Old:     5.00, New:     0.50
UVVIS SAT Changed: 5/15/2020 11:57:52 AM, Old:0.1000, New:0.0125
Common SAT Changed: 5/15/2020 11:57:52 AM, Old:0.1000, New:0.0125
X Start nm Changed: 5/15/2020 11:57:56 AM, Old:  800.0, New:  500.0
Common Interval nm Changed: 5/15/2020 11:57:56 AM, Old:     0.50, New:     2.00
X Start nm Changed: 5/15/2020 11:58:47 AM, Old:  500.0, New:  600.0
X Stop nm Changed: 5/15/2020 11:58:47 AM, Old:  200.0, New:  190.0
Common Interval nm Changed: 5/15/2020 11:58:47 AM, Old:     2.00, New:     5.00
UVVIS SAT Changed: 5/15/2020 12:06:39 PM, Old:0.0125, New:0.1000
Common SAT Changed: 5/15/2020 12:06:39 PM, Old:0.0125, New:0.1000
X Stop nm Changed: 5/15/2020 12:06:45 PM, Old:  190.0, New:  300.0
Common Interval nm Changed: 5/15/2020 12:06:45 PM, Old:     5.00, New:     1.00
UVVIS SAT Changed: 5/15/2020 12:07:49 PM, Old:0.1000, New:0.0125
Common SAT Changed: 5/15/2020 12:07:49 PM, Old:0.1000, New:0.0125
X Start nm Changed: 5/15/2020 12:07:53 PM, Old:  600.0, New: 1000.0
X Stop nm Changed: 5/15/2020 12:07:53 PM, Old:  300.0, New:  190.0
Common Interval nm Changed: 5/15/2020 12:07:53 PM, Old:     1.00, New:     5.00
X Start nm Changed: 5/15/2020 12:20:16 PM, Old: 1000.0, New:  500.0
UVVIS SAT Changed: 5/15/2020 12:20:34 PM, Old:0.0125, New:0.1000
Common SAT Changed: 5/15/2020 12:20:34 PM, Old:0.0125, New:0.1000
Common Interval nm Changed: 5/15/2020 12:20:36 PM, Old:     5.00, New:     1.00
End Method Modifications
<Current Wavelength> , 190.0

specimen1,
specimen1
Collection Time: 5/15/2020 12:30:00 PM
Operator Name  :
Scan Version 5.1.0.1016
Parameter List :
Instrument  Cary 60
Instrument Version  2.00
Start (nm)  500.0
Stop (nm)  190.0
X Mode  Nanometers
Y Mode  Abs
UV-Vis Scan Rate (nm/min)  24000.00
UV-Vis Data Interval (nm)  5.00
UV-Vis Ave. Time (sec)  0.0125
Beam Mode  Dual Beam
Baseline Correction  Off
Cycle Mode  Off
Method Log     :
Method Name    :
Date/Time stamp: 5/15/2020 11:53:41 AM
Method Modifications:
UVVIS SAT Changed: 5/15/2020 11:54:02 AM, Old:0.0125, New:0.1000
Common SAT Changed: 5/15/2020 11:54:02 AM, Old:0.0125, New:0.1000
Y Max Abs Changed: 5/15/2020 11:54:09 AM, Old:     1.00, New:     2.00
Common Interval nm Changed: 5/15/2020 11:54:09 AM, Old:     5.00, New:     0.50
UVVIS SAT Changed: 5/15/2020 11:57:52 AM, Old:0.1000, New:0.0125
Common SAT Changed: 5/15/2020 11:57:52 AM, Old:0.1000, New:0.0125
X Start nm Changed: 5/15/2020 11:57:56 AM, Old:  800.0, New:  500.0
Common Interval nm Changed: 5/15/2020 11:57:56 AM, Old:     0.50, New:     2.00
X Start nm Changed: 5/15/2020 11:58:47 AM, Old:  500.0, New:  600.0
X Stop nm Changed: 5/15/2020 11:58:47 AM, Old:  200.0, New:  190.0
Common Interval nm Changed: 5/15/2020 11:58:47 AM, Old:     2.00, New:     5.00
UVVIS SAT Changed: 5/15/2020 12:06:39 PM, Old:0.0125, New:0.1000
Common SAT Changed: 5/15/2020 12:06:39 PM, Old:0.0125, New:0.1000
X Stop nm Changed: 5/15/2020 12:06:45 PM, Old:  190.0, New:  300.0
Common Interval nm Changed: 5/15/2020 12:06:45 PM, Old:     5.00, New:     1.00
UVVIS SAT Changed: 5/15/2020 12:07:49 PM, Old:0.1000, New:0.0125
Common SAT Changed: 5/15/2020 12:07:49 PM, Old:0.1000, New:0.0125
X Start nm Changed: 5/15/2020 12:07:53 PM, Old:  600.0, New: 1000.0
X Stop nm Changed: 5/15/2020 12:07:53 PM, Old:  300.0, New:  190.0
Common Interval nm Changed: 5/15/2020 12:07:53 PM, Old:     1.00, New:     5.00
X Start nm Changed: 5/15/2020 12:20:16 PM, Old: 1000.0, New:  500.0
UVVIS SAT Changed: 5/15/2020 12:20:34 PM, Old:0.0125, New:0.1000
Common SAT Changed: 5/15/2020 12:20:34 PM, Old:0.0125, New:0.1000
Common Interval nm Changed: 5/15/2020 12:20:36 PM, Old:     5.00, New:     1.00
UVVIS SAT Changed: 5/15/2020 12:29:52 PM, Old:0.1000, New:0.0125
Common SAT Changed: 5/15/2020 12:29:52 PM, Old:0.1000, New:0.0125
Common Interval nm Changed: 5/15/2020 12:29:53 PM, Old:     1.00, New:     5.00
End Method Modifications
<Current Wavelength> , 240.0

specimen2,
specimen2
Collection Time: 5/15/2020 12:31:39 PM
Operator Name  :
Scan Version 5.1.0.1016
Parameter List :
Instrument  Cary 60
Instrument Version  2.00
Start (nm)  1000.0
Stop (nm)  190.0
X Mode  Nanometers
Y Mode  Abs
UV-Vis Scan Rate (nm/min)  240.00
UV-Vis Data Interval (nm)  0.20
UV-Vis Ave. Time (sec)  0.0500
Beam Mode  Dual Beam
Baseline Correction  Off
Cycle Mode  Off
Method Log     :
Method Name    :
Date/Time stamp: 5/15/2020 11:53:41 AM
Method Modifications:
UVVIS SAT Changed: 5/15/2020 11:54:02 AM, Old:0.0125, New:0.1000
Common SAT Changed: 5/15/2020 11:54:02 AM, Old:0.0125, New:0.1000
Y Max Abs Changed: 5/15/2020 11:54:09 AM, Old:     1.00, New:     2.00
Common Interval nm Changed: 5/15/2020 11:54:09 AM, Old:     5.00, New:     0.50
UVVIS SAT Changed: 5/15/2020 11:57:52 AM, Old:0.1000, New:0.0125
Common SAT Changed: 5/15/2020 11:57:52 AM, Old:0.1000, New:0.0125
X Start nm Changed: 5/15/2020 11:57:56 AM, Old:  800.0, New:  500.0
Common Interval nm Changed: 5/15/2020 11:57:56 AM, Old:     0.50, New:     2.00
X Start nm Changed: 5/15/2020 11:58:47 AM, Old:  500.0, New:  600.0
X Stop nm Changed: 5/15/2020 11:58:47 AM, Old:  200.0, New:  190.0
Common Interval nm Changed: 5/15/2020 11:58:47 AM, Old:     2.00, New:     5.00
UVVIS SAT Changed: 5/15/2020 12:06:39 PM, Old:0.0125, New:0.1000
Common SAT Changed: 5/15/2020 12:06:39 PM, Old:0.0125, New:0.1000
X Stop nm Changed: 5/15/2020 12:06:45 PM, Old:  190.0, New:  300.0
Common Interval nm Changed: 5/15/2020 12:06:45 PM, Old:     5.00, New:     1.00
UVVIS SAT Changed: 5/15/2020 12:07:49 PM, Old:0.1000, New:0.0125
Common SAT Changed: 5/15/2020 12:07:49 PM, Old:0.1000, New:0.0125
X Start nm Changed: 5/15/2020 12:07:53 PM, Old:  600.0, New: 1000.0
X Stop nm Changed: 5/15/2020 12:07:53 PM, Old:  300.0, New:  190.0
Common Interval nm Changed: 5/15/2020 12:07:53 PM, Old:     1.00, New:     5.00
X Start nm Changed: 5/15/2020 12:20:16 PM, Old: 1000.0, New:  500.0
UVVIS SAT Changed: 5/15/2020 12:20:34 PM, Old:0.0125, New:0.1000
Common SAT Changed: 5/15/2020 12:20:34 PM, Old:0.0125, New:0.1000
Common Interval nm Changed: 5/15/2020 12:20:36 PM, Old:     5.00, New:     1.00
UVVIS SAT Changed: 5/15/2020 12:29:52 PM, Old:0.1000, New:0.0125
Common SAT Changed: 5/15/2020 12:29:52 PM, Old:0.1000, New:0.0125
Common Interval nm Changed: 5/15/2020 12:29:53 PM, Old:     1.00, New:     5.00
UVVIS SAT Changed: 5/15/2020 12:30:14 PM, Old:0.0125, New:0.5000
Common SAT Changed: 5/15/2020 12:30:14 PM, Old:0.0125, New:0.5000
UVVIS SAT Changed: 5/15/2020 12:30:37 PM, Old:0.5000, New:0.1000
Common SAT Changed: 5/15/2020 12:30:37 PM, Old:0.5000, New:0.1000
UVVIS SAT Changed: 5/15/2020 12:31:03 PM, Old:0.1000, New:0.0500
Common SAT Changed: 5/15/2020 12:31:03 PM, Old:0.1000, New:0.0500
X Start nm Changed: 5/15/2020 12:31:26 PM, Old:  500.0, New: 1000.0
Common Interval nm Changed: 5/15/2020 12:31:26 PM, Old:     5.00, New:     0.20
End Method Modifications
<Current Wavelength> , 190.5